SpectraSuite Data File
++++++++++++++++++++++++++++++++++++
Date: Tue Dec 15 09:43:14 GMT 2015
User: lew507
Dark Spectrum Present: Yes
Reference Spectrum Present: No
Number of Sampled Component Spectra: 1
Spectrometers: JAZA1505
Integration Time (usec): 2000000 (JAZA1505)
Spectra Averaged: 3 (JAZA1505)
Boxcar Smoothing: 0 (JAZA1505)
Correct for Electrical Dark: No (JAZA1505)
Strobe/Lamp Enabled: No (JAZA1505)
Correct for Detector Non-linearity: No (JAZA1505)
Correct for Stray Light: No (JAZA1505)
Number of Pixels in Processed Spectrum: 2048
>>>>>Begin Processed Spectral Data<<<<<
339.60	26.93
339.98	26.93
340.36	26.93
340.74	-9.73
341.12	-2.99
341.50	-17.21
341.88	-11.22
342.26	17.95
342.64	-11.22
343.02	-71.82
343.40	-38.90
343.78	-13.47
344.17	0.75
344.55	7.48
344.93	-8.23
345.31	38.15
345.69	-5.98
346.07	-41.15
346.45	1.50
346.83	-44.89
347.21	-0.75
347.59	-49.38
347.97	-20.20
348.35	5.24
348.73	41.89
349.11	-51.62
349.49	-71.82
349.87	2.24
350.25	3.74
350.63	7.48
351.01	-29.18
351.39	24.69
351.77	-22.44
352.15	-46.38
352.53	-68.08
352.91	3.74
353.29	-17.21
353.67	-11.22
354.05	25.44
354.43	-52.37
354.81	1.50
355.19	53.86
355.57	-44.14
355.95	-14.96
356.33	-68.08
356.71	-12.72
357.09	-62.84
357.47	-95.01
357.84	-47.88
358.22	-4.49
358.60	14.96
358.98	16.46
359.36	-32.17
359.74	-14.96
360.12	2.24
360.50	31.42
360.88	-43.39
361.26	-28.43
361.64	-6.73
362.02	-5.24
362.39	-14.96
362.77	41.89
363.15	-16.46
363.53	11.22
363.91	57.60
364.29	-14.96
364.67	-2.99
365.05	38.90
365.42	-2.24
365.80	-80.05
366.18	-42.64
366.56	10.47
366.94	-46.38
367.32	-38.15
367.70	-93.51
368.07	12.72
368.45	32.17
368.83	0.75
369.21	-16.46
369.59	4.49
369.97	-2.99
370.34	-14.21
370.72	-74.06
371.10	-52.37
371.48	-71.82
371.86	-4.49
372.23	4.49
372.61	-18.70
372.99	72.57
373.37	4.49
373.75	-23.94
374.12	0.00
374.50	-20.20
374.88	41.89
375.26	32.17
375.64	55.36
376.01	-8.23
376.39	-20.20
376.77	15.71
377.15	-9.73
377.52	-4.49
377.90	-0.75
378.28	-20.20
378.66	17.95
379.03	-23.19
379.41	19.45
379.79	-36.66
380.17	-9.73
380.54	2.24
380.92	-17.95
381.30	-44.89
381.67	-62.09
382.05	15.71
382.43	50.87
382.81	-82.29
383.18	-41.15
383.56	-26.93
383.94	7.48
384.31	12.72
384.69	-18.70
385.07	-7.48
385.44	6.73
385.82	38.15
386.20	3.74
386.57	16.46
386.95	11.22
387.33	-45.64
387.70	-11.97
388.08	61.35
388.46	20.95
388.83	-41.15
389.21	8.98
389.59	-11.97
389.96	-46.38
390.34	27.68
390.72	36.66
391.09	5.24
391.47	22.44
391.84	-16.46
392.22	-2.24
392.60	86.03
392.97	-11.97
393.35	-26.18
393.73	-11.97
394.10	-6.73
394.48	-29.92
394.85	-31.42
395.23	-24.69
395.61	-47.13
395.98	-36.66
396.36	-10.47
396.73	25.44
397.11	-36.66
397.48	-16.46
397.86	-5.24
398.24	-25.44
398.61	-34.41
398.99	12.72
399.36	-81.54
399.74	-15.71
400.11	23.94
400.49	-18.70
400.86	-16.46
401.24	-6.73
401.61	-47.13
401.99	19.45
402.36	-11.97
402.74	-2.99
403.11	-11.97
403.49	14.96
403.86	-46.38
404.24	8.23
404.61	5.24
404.99	-35.16
405.36	33.67
405.74	28.43
406.11	14.21
406.49	-40.40
406.86	12.72
407.24	-47.13
407.61	-8.98
407.99	-38.15
408.36	-17.21
408.74	62.84
409.11	-14.96
409.49	-17.95
409.86	-59.85
410.24	-14.96
410.61	-31.42
410.98	-39.65
411.36	13.47
411.73	5.98
412.11	-41.15
412.48	-50.87
412.86	3.74
413.23	-98.00
413.60	-14.21
413.98	29.18
414.35	-6.73
414.73	11.22
415.10	-35.16
415.47	-44.89
415.85	-57.60
416.22	-30.67
416.60	-44.89
416.97	-52.37
417.34	-12.72
417.72	-15.71
418.09	-43.39
418.46	2.99
418.84	-20.95
419.21	-53.86
419.58	-73.32
419.96	14.21
420.33	-28.43
420.70	-6.73
421.08	-14.96
421.45	6.73
421.82	29.18
422.20	-2.99
422.57	56.86
422.94	-62.09
423.32	-9.73
423.69	-59.10
424.06	-43.39
424.44	8.98
424.81	44.89
425.18	-27.68
425.56	-77.06
425.93	-36.66
426.30	-0.75
426.67	21.70
427.05	-13.47
427.42	11.97
427.79	5.24
428.17	-44.14
428.54	-40.40
428.91	-14.21
429.28	-6.73
429.66	12.72
430.03	14.21
430.40	-17.21
430.77	-4.49
431.15	-8.98
431.52	-23.19
431.89	-10.47
432.26	-25.44
432.63	23.94
433.01	-3.74
433.38	17.21
433.75	-50.12
434.12	-22.44
434.50	-36.66
434.87	31.42
435.24	-59.10
435.61	-33.67
435.98	28.43
436.36	16.46
436.73	-32.92
437.10	18.70
437.47	23.19
437.84	-30.67
438.21	-32.17
438.59	-52.37
438.96	-33.67
439.33	-1.50
439.70	-16.46
440.07	-12.72
440.44	47.88
440.81	29.18
441.19	-1.50
441.56	-14.96
441.93	34.41
442.30	15.71
442.67	39.65
443.04	24.69
443.41	-21.70
443.78	17.21
444.16	12.72
444.53	-24.69
444.90	14.96
445.27	26.93
445.64	-35.16
446.01	-37.41
446.38	-30.67
446.75	3.74
447.12	-0.75
447.49	8.98
447.86	-20.20
448.24	-6.73
448.61	-8.23
448.98	-11.22
449.35	-27.68
449.72	-14.21
450.09	-56.11
450.46	-18.70
450.83	44.89
451.20	-35.91
451.57	17.21
451.94	-7.48
452.31	-26.18
452.68	-5.98
453.05	44.14
453.42	39.65
453.79	0.75
454.16	-29.18
454.53	-1.50
454.90	4.49
455.27	25.44
455.64	38.15
456.01	-2.99
456.38	-50.87
456.75	-35.16
457.12	34.41
457.49	30.67
457.86	-28.43
458.23	-19.45
458.60	25.44
458.97	11.22
459.34	12.72
459.71	37.41
460.08	-56.11
460.45	-14.21
460.82	-11.22
461.18	79.30
461.55	62.84
461.92	33.67
462.29	3.74
462.66	32.92
463.03	-28.43
463.40	37.41
463.77	8.98
464.14	21.70
464.51	61.35
464.88	49.38
465.25	32.92
465.61	18.70
465.98	29.18
466.35	-19.45
466.72	22.44
467.09	39.65
467.46	66.58
467.83	41.89
468.20	7.48
468.56	1.50
468.93	-65.09
469.30	-30.67
469.67	-14.96
470.04	11.97
470.41	19.45
470.77	44.14
471.14	89.77
471.51	50.12
471.88	17.95
472.25	-16.46
472.62	-2.99
472.98	20.95
473.35	27.68
473.72	35.91
474.09	32.92
474.46	14.96
474.82	95.76
475.19	91.27
475.56	77.06
475.93	95.76
476.29	35.16
476.66	59.85
477.03	52.37
477.40	33.67
477.77	31.42
478.13	56.11
478.50	114.46
478.87	89.77
479.24	103.99
479.60	106.23
479.97	77.80
480.34	78.55
480.71	107.73
481.07	109.97
481.44	57.60
481.81	98.00
482.17	28.43
482.54	54.61
482.91	94.26
483.28	101.74
483.64	168.33
484.01	118.95
484.38	150.37
484.74	195.26
485.11	228.18
485.48	170.57
485.84	181.79
486.21	163.84
486.58	160.10
486.94	219.95
487.31	213.21
487.68	210.97
488.04	236.40
488.41	231.17
488.78	190.77
489.14	274.56
489.51	256.60
489.87	242.39
490.24	231.92
490.61	299.25
490.97	315.71
491.34	338.90
491.71	319.45
492.07	321.69
492.44	414.46
492.80	366.58
493.17	349.37
493.54	356.85
493.90	488.52
494.27	439.14
494.63	464.58
495.00	451.11
495.37	500.49
495.73	501.24
496.10	582.03
496.46	586.52
496.83	639.64
497.19	567.82
497.56	561.84
497.92	706.97
498.29	682.28
498.65	630.66
499.02	721.18
499.39	778.79
499.75	832.65
500.12	846.12
500.48	793.00
500.85	825.92
501.21	853.60
501.58	989.01
501.94	942.63
502.31	1008.46
502.67	1084.02
503.04	1044.37
503.40	1057.09
503.77	1203.72
504.13	1162.57
504.50	1247.86
504.86	1250.10
505.23	1360.82
505.59	1354.09
505.95	1377.28
506.32	1401.97
506.68	1422.17
507.05	1482.02
507.41	1553.84
507.78	1629.40
508.14	1719.92
508.51	1699.72
508.87	1821.66
509.23	1821.66
509.60	1825.40
509.96	1918.92
510.33	1972.03
510.69	1942.86
511.05	2064.80
511.42	2138.12
511.78	2218.17
512.15	2288.49
512.51	2421.65
512.87	2303.45
513.24	2357.31
513.60	2526.39
513.97	2549.58
514.33	2604.94
514.69	2608.68
515.06	2672.27
515.42	2703.69
515.78	2851.82
516.15	2901.94
516.51	2849.58
516.87	2994.71
517.24	3037.35
517.60	3276.75
517.96	3146.58
518.33	3201.19
518.69	3344.83
519.05	3390.46
519.42	3405.43
519.78	3463.78
520.14	3581.98
520.51	3559.54
520.87	3587.22
521.23	3656.79
521.59	3767.51
521.96	3867.76
522.32	3819.13
522.68	3813.90
523.05	3923.87
523.41	3908.16
523.77	4076.49
524.13	4129.60
524.50	4125.86
524.86	4150.55
525.22	4149.05
525.58	4242.57
525.95	4282.97
526.31	4191.70
526.67	4392.94
527.03	4398.18
527.39	4301.67
527.76	4491.69
528.12	4387.70
528.48	4410.15
528.84	4341.32
529.20	4370.50
529.57	4427.35
529.93	4424.36
530.29	4381.72
530.65	4506.65
531.01	4411.64
531.38	4468.50
531.74	4410.89
532.10	4419.87
532.46	4439.32
532.82	4319.62
533.18	4371.24
533.55	4442.32
533.91	4379.47
534.27	4253.04
534.63	4318.13
534.99	4296.43
535.35	4237.33
535.71	4184.96
536.08	4212.64
536.44	4190.95
536.80	4124.37
537.16	4075.74
537.52	3979.98
537.88	3994.94
538.24	3966.51
538.60	3902.18
538.96	3914.89
539.32	3816.89
539.69	3705.42
540.05	3744.32
540.41	3763.77
540.77	3693.45
541.13	3625.37
541.49	3594.70
541.85	3501.93
542.21	3480.24
542.57	3421.14
542.93	3324.63
543.29	3308.92
543.65	3192.96
544.01	3201.94
544.37	3212.41
544.73	3192.96
545.09	3092.71
545.45	3005.93
545.81	3049.32
546.17	2976.01
546.53	3087.48
546.89	2868.28
547.25	2881.00
547.61	2927.38
547.97	2880.25
548.33	2853.32
548.69	2779.25
549.05	2772.52
549.41	2707.43
549.77	2644.59
550.13	2603.45
550.49	2592.22
550.85	2586.99
551.21	2579.51
551.57	2552.57
551.93	2450.83
552.29	2429.13
552.65	2399.21
553.01	2445.59
553.37	2348.34
553.73	2314.67
554.09	2279.51
554.44	2264.55
554.80	2313.18
555.16	2239.11
555.52	2193.48
555.88	2162.06
556.24	2231.63
556.60	2064.80
556.96	2049.09
557.32	1996.72
557.68	2055.82
558.03	2040.86
558.39	2001.21
558.75	1972.78
559.11	1927.90
559.47	1917.42
559.83	1872.54
560.19	1938.37
560.54	1860.57
560.90	1784.26
561.26	1830.64
561.62	1758.82
561.98	1715.43
562.34	1692.99
562.69	1646.60
563.05	1568.80
563.41	1565.06
563.77	1559.07
564.13	1560.57
564.48	1586.75
564.84	1540.37
565.20	1468.55
565.56	1448.35
565.92	1409.45
566.27	1471.55
566.63	1469.30
566.99	1274.79
567.35	1402.72
567.70	1279.28
568.06	1303.22
568.42	1289.00
568.78	1181.28
569.13	1179.78
569.49	1125.92
569.85	1119.93
570.21	1171.55
570.56	1121.43
570.92	1044.37
571.28	1110.95
571.63	1045.12
571.99	1030.16
572.35	950.11
572.71	917.19
573.06	915.69
573.42	916.44
573.78	927.66
574.13	926.92
574.49	879.78
574.85	844.62
575.20	810.96
575.56	782.53
575.92	809.46
576.27	776.54
576.63	725.67
576.99	715.95
577.34	719.69
577.70	679.29
578.06	684.53
578.41	620.94
578.77	665.82
579.13	689.76
579.48	610.46
579.84	559.59
580.19	585.78
580.55	580.54
580.91	553.61
581.26	531.91
581.62	525.18
581.97	470.57
582.33	508.72
582.69	471.31
583.04	443.63
583.40	477.30
583.75	345.63
584.11	442.14
584.46	397.25
584.82	423.43
585.17	391.26
585.53	370.32
585.89	386.03
586.24	437.65
586.60	442.14
586.95	395.01
587.31	362.84
587.66	308.22
588.02	380.79
588.37	310.47
588.73	356.10
589.08	329.92
589.44	311.96
589.79	259.60
590.15	247.63
590.50	302.99
590.86	282.79
591.21	286.53
591.57	264.83
591.92	252.86
592.28	205.73
592.63	276.05
592.99	282.79
593.34	213.21
593.69	178.80
594.05	275.31
594.40	206.48
594.76	154.11
595.11	201.99
595.47	200.50
595.82	224.43
596.18	165.33
596.53	173.56
596.88	178.05
597.24	182.54
597.59	205.73
597.95	126.43
598.30	141.39
598.65	112.97
599.01	171.32
599.36	121.19
599.71	106.98
600.07	55.36
600.42	111.47
600.78	133.16
601.13	125.68
601.48	195.26
601.84	130.17
602.19	128.68
602.54	101.74
602.90	110.72
603.25	163.84
603.60	77.06
603.96	109.97
604.31	87.53
604.66	89.77
605.02	80.05
605.37	54.61
605.72	50.12
606.08	79.30
606.43	61.35
606.78	62.09
607.13	39.65
607.49	78.55
607.84	32.17
608.19	89.77
608.55	14.96
608.90	53.12
609.25	50.12
609.60	28.43
609.96	56.86
610.31	17.95
610.66	-2.24
611.01	-6.73
611.37	95.01
611.72	19.45
612.07	52.37
612.42	32.17
612.77	35.91
613.13	-24.69
613.48	16.46
613.83	91.27
614.18	-17.95
614.53	-68.83
614.89	-5.98
615.24	23.94
615.59	14.96
615.94	-16.46
616.29	-38.15
616.65	44.89
617.00	-23.19
617.35	29.92
617.70	18.70
618.05	-42.64
618.40	0.75
618.75	26.18
619.11	10.47
619.46	26.18
619.81	23.19
620.16	0.75
620.51	41.89
620.86	-8.23
621.21	41.89
621.56	52.37
621.92	-41.89
622.27	-20.20
622.62	-17.95
622.97	-71.07
623.32	-42.64
623.67	-15.71
624.02	-20.20
624.37	-50.12
624.72	-35.91
625.07	41.15
625.42	-39.65
625.77	40.40
626.12	4.49
626.47	-32.17
626.82	-10.47
627.18	24.69
627.53	-26.93
627.88	43.39
628.23	-8.23
628.58	-35.91
628.93	-35.16
629.28	-5.24
629.63	-24.69
629.98	-2.24
630.33	-1.50
630.68	-44.89
631.03	6.73
631.38	0.75
631.73	-25.44
632.08	-64.34
632.43	-50.12
632.78	-31.42
633.12	13.47
633.47	-109.97
633.82	21.70
634.17	-2.99
634.52	26.18
634.87	30.67
635.22	-27.68
635.57	-5.24
635.92	-26.93
636.27	16.46
636.62	26.93
636.97	-83.04
637.32	-33.67
637.67	-0.75
638.01	-13.47
638.36	-15.71
638.71	50.12
639.06	4.49
639.41	28.43
639.76	-13.47
640.11	4.49
640.46	-13.47
640.81	-9.73
641.15	19.45
641.50	-56.11
641.85	-62.84
642.20	-45.64
642.55	29.18
642.90	24.69
643.24	26.18
643.59	-0.75
643.94	-46.38
644.29	-15.71
644.64	-25.44
644.99	46.38
645.33	-14.21
645.68	8.23
646.03	59.85
646.38	-29.92
646.72	50.87
647.07	27.68
647.42	-27.68
647.77	0.00
648.12	-7.48
648.46	23.94
648.81	-9.73
649.16	-4.49
649.51	-34.41
649.85	17.21
650.20	-35.16
650.55	-47.13
650.90	-10.47
651.24	-45.64
651.59	-37.41
651.94	-18.70
652.28	-28.43
652.63	-17.21
652.98	12.72
653.33	-5.98
653.67	2.99
654.02	-20.20
654.37	-2.24
654.71	0.75
655.06	-19.45
655.41	-28.43
655.75	-15.71
656.10	-1.50
656.45	49.38
656.79	-21.70
657.14	-4.49
657.49	29.18
657.83	-11.97
658.18	-43.39
658.53	5.24
658.87	-51.62
659.22	-44.89
659.56	-47.88
659.91	-16.46
660.26	56.11
660.60	-33.67
660.95	-2.99
661.29	-29.18
661.64	-31.42
661.99	30.67
662.33	-30.67
662.68	20.95
663.02	-22.44
663.37	-37.41
663.72	-56.11
664.06	-17.21
664.41	69.57
664.75	17.95
665.10	4.49
665.44	-4.49
665.79	62.84
666.13	76.31
666.48	-11.97
666.82	11.97
667.17	-23.19
667.51	-55.36
667.86	-11.22
668.20	7.48
668.55	5.98
668.89	53.12
669.24	-0.00
669.58	5.98
669.93	-14.96
670.27	43.39
670.62	11.97
670.96	62.09
671.31	-29.18
671.65	2.99
672.00	-24.69
672.34	0.75
672.69	38.15
673.03	7.48
673.38	-2.99
673.72	2.99
674.06	-1.50
674.41	15.71
674.75	17.21
675.10	2.99
675.44	16.46
675.78	-43.39
676.13	51.62
676.47	34.41
676.82	-91.27
677.16	-120.45
677.50	-68.08
677.85	32.92
678.19	-43.39
678.54	-15.71
678.88	3.74
679.22	-1.50
679.57	-47.13
679.91	18.70
680.25	-4.49
680.60	-14.96
680.94	-20.95
681.28	29.18
681.63	16.46
681.97	-14.96
682.31	-26.18
682.66	-2.24
683.00	-36.66
683.34	17.95
683.69	-39.65
684.03	-24.69
684.37	2.24
684.71	7.48
685.06	-12.72
685.40	9.73
685.74	5.98
686.09	25.44
686.43	-15.71
686.77	-17.21
687.11	29.18
687.46	-24.69
687.80	40.40
688.14	-11.22
688.48	-3.74
688.82	23.19
689.17	10.47
689.51	-6.73
689.85	-26.18
690.19	11.97
690.54	-41.15
690.88	-52.37
691.22	1.50
691.56	-15.71
691.90	-10.47
692.25	-20.95
692.59	26.93
692.93	-24.69
693.27	29.18
693.61	44.14
693.95	-16.46
694.30	-11.97
694.64	14.21
694.98	-8.23
695.32	-30.67
695.66	47.13
696.00	-29.18
696.34	-41.15
696.68	-9.73
697.03	-2.99
697.37	-53.12
697.71	38.90
698.05	-32.92
698.39	33.67
698.73	-24.69
699.07	-23.19
699.41	-26.18
699.75	9.73
700.09	20.20
700.44	-20.20
700.78	-28.43
701.12	12.72
701.46	-23.19
701.80	-26.93
702.14	5.24
702.48	16.46
702.82	-29.18
703.16	-11.22
703.50	-5.98
703.84	-38.90
704.18	-3.74
704.52	-24.69
704.86	0.00
705.20	-50.12
705.54	-35.91
705.88	4.49
706.22	71.82
706.56	-6.73
706.90	-7.48
707.24	38.15
707.58	-14.21
707.92	-24.69
708.26	-47.88
708.60	-49.38
708.94	-30.67
709.28	-68.08
709.62	0.75
709.96	-57.60
710.30	-11.22
710.63	-69.57
710.97	-6.73
711.31	31.42
711.65	-11.97
711.99	-2.99
712.33	-26.18
712.67	-49.38
713.01	-17.95
713.35	51.62
713.69	18.70
714.03	29.92
714.36	-25.44
714.70	-28.43
715.04	-23.94
715.38	23.19
715.72	59.85
716.06	-50.12
716.40	-26.93
716.73	-24.69
717.07	-10.47
717.41	-23.94
717.75	-16.46
718.09	24.69
718.43	31.42
718.76	7.48
719.10	-52.37
719.44	-59.85
719.78	47.88
720.12	12.72
720.45	-38.15
720.79	-38.90
721.13	44.14
721.47	-18.70
721.80	-6.73
722.14	-22.44
722.48	-14.96
722.82	-65.09
723.16	-46.38
723.49	46.38
723.83	5.24
724.17	5.24
724.50	-48.63
724.84	-32.17
725.18	-40.40
725.52	9.73
725.85	-28.43
726.19	16.46
726.53	11.22
726.87	10.47
727.20	-26.18
727.54	-53.86
727.88	23.19
728.21	-70.32
728.55	-17.21
728.89	-35.91
729.22	23.94
729.56	14.21
729.90	-8.98
730.23	-35.16
730.57	-32.92
730.91	-59.85
731.24	13.47
731.58	15.71
731.91	-0.75
732.25	28.43
732.59	17.21
732.92	-9.73
733.26	-20.95
733.60	-82.29
733.93	0.75
734.27	7.48
734.60	-65.09
734.94	-26.18
735.27	-1.50
735.61	-77.80
735.95	9.73
736.28	2.24
736.62	-2.99
736.95	2.24
737.29	19.45
737.62	0.75
737.96	-31.42
738.29	-43.39
738.63	20.20
738.97	40.40
739.30	-24.69
739.64	-23.19
739.97	19.45
740.31	-1.50
740.64	-9.73
740.98	-17.95
741.31	-5.98
741.65	-37.41
741.98	18.70
742.32	33.67
742.65	-92.02
742.98	8.23
743.32	25.44
743.65	-23.94
743.99	-21.70
744.32	-32.92
744.66	8.98
744.99	-59.85
745.33	81.54
745.66	24.69
745.99	-19.45
746.33	-26.93
746.66	-71.07
747.00	-18.70
747.33	-16.46
747.67	-51.62
748.00	-16.46
748.33	29.18
748.67	2.24
749.00	-5.98
749.33	35.16
749.67	-18.70
750.00	15.71
750.34	-5.98
750.67	11.22
751.00	32.17
751.34	29.92
751.67	-1.50
752.00	47.88
752.34	56.11
752.67	5.98
753.00	25.44
753.34	25.44
753.67	45.64
754.00	-46.38
754.34	21.70
754.67	35.91
755.00	-62.84
755.33	-84.54
755.67	-29.92
756.00	11.22
756.33	-9.73
756.67	5.98
757.00	-23.94
757.33	-14.21
757.66	-16.46
758.00	-32.92
758.33	-13.47
758.66	25.44
758.99	16.46
759.33	12.72
759.66	-1.50
759.99	-66.58
760.32	-34.41
760.65	14.96
760.99	-67.33
761.32	6.73
761.65	1.50
761.98	15.71
762.31	40.40
762.65	5.98
762.98	-44.89
763.31	-25.44
763.64	-22.44
763.97	21.70
764.30	28.43
764.64	-13.47
764.97	-46.38
765.30	-25.44
765.63	-5.98
765.96	12.72
766.29	-57.60
766.62	-38.15
766.95	9.73
767.29	-30.67
767.62	-7.48
767.95	34.41
768.28	10.47
768.61	-2.24
768.94	-18.70
769.27	6.73
769.60	-68.83
769.93	26.18
770.26	-33.67
770.59	-7.48
770.92	2.99
771.25	11.97
771.59	-4.49
771.92	30.67
772.25	44.14
772.58	-27.68
772.91	2.99
773.24	-20.20
773.57	-58.35
773.90	56.11
774.23	-12.72
774.56	-45.64
774.89	8.98
775.22	0.75
775.55	-37.41
775.88	-35.16
776.21	9.73
776.54	14.21
776.87	74.06
777.20	14.96
777.53	0.00
777.85	-11.22
778.18	-35.91
778.51	-20.20
778.84	-9.73
779.17	6.73
779.50	8.23
779.83	-4.49
780.16	-7.48
780.49	45.64
780.82	9.73
781.15	-41.89
781.48	-38.15
781.81	-22.44
782.13	-60.60
782.46	12.72
782.79	-7.48
783.12	-10.47
783.45	56.86
783.78	-42.64
784.11	8.23
784.43	20.20
784.76	68.08
785.09	-26.93
785.42	-3.74
785.75	43.39
786.08	-14.96
786.40	-57.60
786.73	-21.70
787.06	84.54
787.39	-32.17
787.72	-30.67
788.04	11.97
788.37	-27.68
788.70	-23.19
789.03	0.75
789.36	-26.93
789.68	-44.14
790.01	-50.87
790.34	10.47
790.67	-5.24
790.99	25.44
791.32	-66.58
791.65	-23.19
791.98	5.98
792.30	50.12
792.63	22.44
792.96	16.46
793.29	6.73
793.61	-6.73
793.94	-28.43
794.27	5.98
794.59	32.92
794.92	-6.73
795.25	-80.80
795.57	2.24
795.90	-6.73
796.23	-24.69
796.55	-69.57
796.88	-0.75
797.21	15.71
797.53	-18.70
797.86	-27.68
798.19	-29.92
798.51	-0.75
798.84	14.96
799.17	-2.24
799.49	-23.19
799.82	-44.14
800.14	-7.48
800.47	5.24
800.80	18.70
801.12	-21.70
801.45	6.73
801.77	8.98
802.10	-42.64
802.43	-20.95
802.75	0.00
803.08	-70.32
803.40	-38.90
803.73	26.18
804.05	-14.96
804.38	-45.64
804.70	-35.16
805.03	-35.91
805.35	7.48
805.68	2.99
806.01	-24.69
806.33	-1.50
806.66	29.92
806.98	-68.08
807.31	-17.95
807.63	-41.89
807.96	-17.95
808.28	-41.89
808.60	97.26
808.93	-35.16
809.25	-35.91
809.58	-24.69
809.90	-3.74
810.23	-33.67
810.55	-37.41
810.88	-17.95
811.20	-26.93
811.53	9.73
811.85	-25.44
812.17	-65.09
812.50	-10.47
812.82	-26.18
813.15	-15.71
813.47	-20.20
813.79	59.10
814.12	7.48
814.44	-44.14
814.77	23.94
815.09	22.44
815.41	-31.42
815.74	-17.21
816.06	-8.98
816.38	11.97
816.71	-41.89
817.03	62.09
817.35	-23.19
817.68	5.24
818.00	8.98
818.32	-50.87
818.65	-39.65
818.97	2.99
819.29	-1.50
819.62	-20.95
819.94	47.88
820.26	-59.10
820.58	-29.18
820.91	44.89
821.23	3.74
821.55	2.99
821.88	-4.49
822.20	-65.09
822.52	-6.73
822.84	-19.45
823.17	-5.24
823.49	-26.18
823.81	-89.77
824.13	-10.47
824.46	-53.12
824.78	-20.20
825.10	-62.09
825.42	-8.98
825.74	-10.47
826.07	-9.73
826.39	18.70
826.71	-15.71
827.03	-22.44
827.35	-53.86
827.67	-17.21
828.00	21.70
828.32	-18.70
828.64	-77.06
828.96	7.48
829.28	-59.85
829.60	-27.68
829.93	-3.74
830.25	59.85
830.57	-17.95
830.89	-27.68
831.21	-7.48
831.53	13.47
831.85	-30.67
832.17	-60.60
832.49	15.71
832.82	-29.18
833.14	-27.68
833.46	-77.06
833.78	23.94
834.10	-14.96
834.42	-36.66
834.74	25.44
835.06	-11.22
835.38	24.69
835.70	-19.45
836.02	15.71
836.34	-52.37
836.66	2.99
836.98	-8.23
837.30	-18.70
837.62	2.99
837.94	-28.43
838.26	4.49
838.58	-20.20
838.90	-37.41
839.22	11.97
839.54	15.71
839.86	-71.07
840.18	62.09
840.50	-55.36
840.82	-32.17
841.14	-17.95
841.46	-38.15
841.78	26.93
842.10	-50.87
842.42	-27.68
842.74	9.73
843.06	2.99
843.38	-2.24
843.69	-49.38
844.01	50.12
844.33	-7.48
844.65	11.22
844.97	14.96
845.29	-23.19
845.61	-35.91
845.93	-50.12
846.25	-8.98
846.56	-48.63
846.88	-53.12
847.20	-20.95
847.52	-55.36
847.84	-30.67
848.16	-24.69
848.47	0.00
848.79	-2.24
849.11	-35.91
849.43	23.94
849.75	-49.38
850.07	59.10
850.38	-58.35
850.70	-20.20
851.02	-46.38
851.34	1.50
851.66	-35.16
851.97	-1.50
852.29	-30.67
852.61	11.97
852.93	-23.19
853.24	-36.66
853.56	-19.45
853.88	-23.94
854.20	35.16
854.51	73.32
854.83	-15.71
855.15	-8.98
855.46	25.44
855.78	-87.53
856.10	-46.38
856.42	19.45
856.73	19.45
857.05	-5.98
857.37	-26.18
857.68	-16.46
858.00	-6.73
858.32	-35.16
858.63	-8.98
858.95	17.21
859.27	-54.61
859.58	11.97
859.90	-4.49
860.22	-11.22
860.53	23.19
860.85	20.20
861.16	-13.47
861.48	-8.98
861.80	-3.74
862.11	-16.46
862.43	-59.10
862.74	7.48
863.06	93.51
863.38	42.64
863.69	-6.73
864.01	22.44
864.32	9.73
864.64	35.16
864.95	-30.67
865.27	33.67
865.59	47.13
865.90	-8.23
866.22	8.23
866.53	-17.95
866.85	-60.60
867.16	-29.92
867.48	-38.90
867.79	-35.16
868.11	35.91
868.42	-11.97
868.74	12.72
869.05	-22.44
869.37	-0.75
869.68	22.44
870.00	-31.42
870.31	-74.06
870.63	-23.19
870.94	-9.73
871.25	-51.62
871.57	-98.00
871.88	-94.26
872.20	-20.95
872.51	8.23
872.83	-16.46
873.14	-52.37
873.45	-38.15
873.77	-23.94
874.08	-41.89
874.40	-19.45
874.71	17.21
875.02	20.20
875.34	2.24
875.65	-7.48
875.96	0.75
876.28	-59.10
876.59	18.70
876.91	-41.15
877.22	13.47
877.53	-25.44
877.85	-20.95
878.16	3.74
878.47	7.48
878.79	18.70
879.10	-77.06
879.41	-34.41
879.72	34.41
880.04	26.18
880.35	8.98
880.66	-63.59
880.98	-64.34
881.29	-43.39
881.60	-21.70
881.91	-8.98
882.23	-16.46
882.54	-17.21
882.85	28.43
883.16	-56.11
883.48	-52.37
883.79	-19.45
884.10	-185.53
884.41	-20.95
884.73	19.45
885.04	-35.16
885.35	-50.12
885.66	1.50
885.97	-89.03
886.29	-90.52
886.60	-48.63
886.91	-42.64
887.22	-30.67
887.53	5.24
887.84	2.99
888.16	-13.47
888.47	51.62
888.78	18.70
889.09	-35.16
889.40	-10.47
889.71	-14.21
890.02	-17.95
890.34	-20.95
890.65	-8.23
890.96	-6.73
891.27	32.17
891.58	-6.73
891.89	26.93
892.20	45.64
892.51	41.15
892.82	15.71
893.13	43.39
893.44	28.43
893.75	23.94
894.07	16.46
894.38	-19.45
894.69	2.99
895.00	-52.37
895.31	50.87
895.62	-6.73
895.93	-13.47
896.24	-42.64
896.55	6.73
896.86	20.20
897.17	-23.94
897.48	-25.44
897.79	2.99
898.10	25.44
898.41	-44.14
898.72	16.46
899.03	-76.31
899.34	-97.26
899.65	-23.19
899.95	-10.47
900.26	7.48
900.57	-29.92
900.88	-33.67
901.19	-14.21
901.50	-44.89
901.81	-29.18
902.12	8.23
902.43	1.50
902.74	-46.38
903.05	-51.62
903.36	3.74
903.66	20.95
903.97	5.24
904.28	0.00
904.59	8.98
904.90	-19.45
905.21	20.20
905.52	5.98
905.82	-37.41
906.13	-39.65
906.44	-30.67
906.75	-46.38
907.06	-43.39
907.37	-0.75
907.67	-53.12
907.98	5.24
908.29	-24.69
908.60	-18.70
908.91	-2.24
909.21	5.98
909.52	-34.41
909.83	-3.74
910.14	4.49
910.44	-27.68
910.75	10.47
911.06	-34.41
911.37	35.16
911.67	-40.40
911.98	0.75
912.29	-22.44
912.60	16.46
912.90	-50.87
913.21	4.49
913.52	38.15
913.82	2.99
914.13	-4.49
914.44	13.47
914.75	-22.44
915.05	-11.22
915.36	14.96
915.67	66.58
915.97	9.73
916.28	29.92
916.59	-33.67
916.89	29.18
917.20	32.92
917.50	29.18
917.81	-19.45
918.12	45.64
918.42	-26.93
918.73	2.24
919.04	-57.60
919.34	1.50
919.65	-14.21
919.95	-14.21
920.26	9.73
920.56	24.69
920.87	1.50
921.18	47.13
921.48	-7.48
921.79	-29.18
922.09	-5.24
922.40	-43.39
922.70	-53.86
923.01	-59.85
923.31	-17.95
923.62	-22.44
923.92	-66.58
924.23	-17.95
924.53	-94.26
924.84	18.70
925.14	-20.95
925.45	-31.42
925.75	-42.64
926.06	-61.35
926.36	-34.41
926.67	21.70
926.97	-20.20
927.28	-44.14
927.58	-64.34
927.89	-7.48
928.19	-46.38
928.49	-14.96
928.80	-14.21
929.10	-127.18
929.41	-26.93
929.71	-27.68
930.02	-16.46
930.32	-24.69
930.62	0.75
930.93	11.97
931.23	-22.44
931.53	-53.12
931.84	-41.15
932.14	-31.42
932.45	-78.55
932.75	-28.43
933.05	19.45
933.36	41.15
933.66	-9.73
933.96	18.70
934.27	2.99
934.57	30.67
934.87	-53.86
935.18	-17.21
935.48	52.37
935.78	12.72
936.08	67.33
936.39	-10.47
936.69	2.24
936.99	5.98
937.30	-35.16
937.60	-51.62
937.90	2.24
938.20	-59.85
938.51	-51.62
938.81	-35.16
939.11	5.98
939.41	-20.20
939.72	-9.73
940.02	29.18
940.32	12.72
940.62	-35.16
940.92	8.98
941.23	-51.62
941.53	-52.37
941.83	-70.32
942.13	-38.90
942.43	8.98
942.73	10.47
943.04	-35.16
943.34	-10.47
943.64	3.74
943.94	-20.20
944.24	35.91
944.54	8.98
944.84	-35.91
945.15	-31.42
945.45	-17.95
945.75	16.46
946.05	19.45
946.35	-4.49
946.65	-15.71
946.95	-13.47
947.25	32.92
947.55	-26.93
947.85	17.21
948.15	-10.47
948.45	-1.50
948.76	28.43
949.06	-8.98
949.36	-26.93
949.66	-24.69
949.96	-35.16
950.26	-17.95
950.56	-4.49
950.86	-26.93
951.16	-11.22
951.46	1.50
951.76	-43.39
952.06	-5.98
952.36	-17.95
952.66	34.41
952.96	-4.49
953.26	-54.61
953.56	-26.93
953.86	-16.46
954.16	5.98
954.45	-22.44
954.75	-33.67
955.05	-38.15
955.35	-44.14
955.65	-30.67
955.95	-51.62
956.25	-41.15
956.55	-29.92
956.85	5.98
957.15	-2.99
957.45	-15.71
957.74	-10.47
958.04	-44.14
958.34	5.24
958.64	-2.24
958.94	2.24
959.24	-5.24
959.54	-6.73
959.83	-55.36
960.13	-29.92
960.43	-47.13
960.73	1.50
961.03	-12.72
961.33	26.18
961.62	-10.47
961.92	-29.18
962.22	5.24
962.52	-48.63
962.82	-23.94
963.11	-29.92
963.41	-17.21
963.71	-53.86
964.01	29.18
964.30	-8.23
964.60	-4.49
964.90	-12.72
965.20	2.24
965.49	-65.09
965.79	10.47
966.09	54.61
966.39	19.45
966.68	8.98
966.98	28.43
967.28	-51.62
967.57	21.70
967.87	0.75
968.17	-29.18
968.46	-23.19
968.76	32.17
969.06	0.75
969.35	-4.49
969.65	26.93
969.95	20.95
970.24	-74.81
970.54	2.99
970.84	-29.18
971.13	55.36
971.43	-76.31
971.72	-5.98
972.02	-53.86
972.32	0.00
972.61	-37.41
972.91	-47.88
973.20	-23.94
973.50	11.22
973.79	0.75
974.09	22.44
974.39	-40.40
974.68	16.46
974.98	-32.92
975.27	-52.37
975.57	-9.73
975.86	17.95
976.16	-10.47
976.45	-38.90
976.75	-22.44
977.04	-14.21
977.34	-51.62
977.63	-88.28
977.93	-34.41
978.22	10.47
978.52	-5.98
978.81	11.97
979.11	38.90
979.40	20.20
979.70	5.24
979.99	-22.44
980.28	25.44
980.58	-28.43
980.87	-46.38
981.17	28.43
981.46	23.94
981.76	50.12
982.05	-44.14
982.34	6.73
982.64	8.23
982.93	-8.98
983.23	-15.71
983.52	9.73
983.81	6.73
984.11	-63.59
984.40	-27.68
984.69	5.24
984.99	2.24
985.28	-18.70
985.57	29.92
985.87	0.75
986.16	-13.47
986.45	6.73
986.75	-10.47
987.04	-32.92
987.33	32.17
987.63	6.73
987.92	-65.83
988.21	-57.60
988.50	-45.64
988.80	23.94
989.09	-11.22
989.38	-44.14
989.68	-29.18
989.97	-2.24
990.26	18.70
990.55	-29.18
990.84	-26.93
991.14	50.12
991.43	23.94
991.72	21.70
992.01	-23.19
992.31	8.98
992.60	-56.86
992.89	-65.83
993.18	23.94
993.47	17.95
993.76	-21.70
994.06	-2.99
994.35	2.24
994.64	-32.17
994.93	-5.24
995.22	5.98
995.51	-30.67
995.80	-19.45
996.10	29.18
996.39	17.95
996.68	-38.15
996.97	-23.94
997.26	-82.29
997.55	-39.65
997.84	61.35
998.13	-3.74
998.42	14.21
998.71	47.13
999.00	6.73
999.30	-85.29
999.59	-38.90
999.88	-31.42
1000.17	-62.09
1000.46	29.92
1000.75	-34.41
1001.04	-45.64
1001.33	-50.12
1001.62	-4.49
1001.91	-2.24
1002.20	-14.96
1002.49	-41.15
1002.78	-8.23
1003.07	-24.69
1003.36	-12.72
1003.65	-17.95
1003.94	1.50
1004.23	-26.93
1004.52	-25.44
1004.81	-47.88
1005.09	0.00
1005.38	7.48
1005.67	-22.44
1005.96	44.89
1006.25	0.75
1006.54	-23.94
1006.83	-37.41
1007.12	-58.35
1007.41	5.98
1007.70	-37.41
1007.99	-40.40
1008.27	-29.92
1008.56	44.14
1008.85	17.95
1009.14	2.24
1009.43	-35.91
1009.72	-21.70
1010.01	4.49
1010.29	-3.74
1010.58	9.73
1010.87	-53.86
1011.16	-34.41
1011.45	-17.95
1011.73	-27.68
1012.02	12.72
1012.31	38.90
1012.60	-5.98
1012.89	-50.12
1013.17	14.21
1013.46	-49.38
1013.75	29.18
1014.04	-50.87
1014.32	-15.71
1014.61	-34.41
1014.90	-103.24
1015.19	-64.34
1015.47	-15.71
1015.76	-47.88
1016.05	12.72
1016.33	24.69
1016.62	-2.24
1016.91	-31.42
1017.20	2.99
1017.48	3.74
1017.77	17.95
1018.06	23.94
1018.34	33.67
1018.63	-50.87
1018.92	-38.90
1019.20	-21.70
1019.49	26.93
1019.77	-51.62
1020.06	-2.99
1020.35	-3.74
1020.63	0.75
1020.92	-17.95
1021.21	-15.71
1021.49	8.98
1021.78	14.21
1022.06	0.00
1022.35	-35.16
1022.63	-87.53
1022.92	5.98
1023.21	-118.20
1023.49	-52.37
1023.78	-23.94
1024.06	-8.98
1024.35	-18.70
1024.63	-62.84
1024.92	-17.95
1025.20	17.21
1025.49	-16.46
1025.77	-29.18
1026.06	14.96
1026.34	-20.20
1026.63	-90.52
1026.91	-43.39
1027.20	29.18
1027.48	-45.64
1027.77	-79.30
1028.05	38.15
1028.34	-27.68
1028.62	-38.15
1028.91	-6.73
1029.19	-47.13
1029.47	-22.44
1029.76	-3.74
>>>>>End Processed Spectral Data<<<<<
